SpectraSuite Data File
++++++++++++++++++++++++++++++++++++
Date: Sun Sep 13 18:41:46 EDT 2015
User: lab3
Dark Spectrum Present: No
Reference Spectrum Present: No
Number of Sampled Component Spectra: 1
Spectrometers: USB2E7196
Integration Time (usec): 65000 (USB2E7196)
Spectra Averaged: 200 (USB2E7196)
Boxcar Smoothing: 10 (USB2E7196)
Correct for Electrical Dark: No (USB2E7196)
Strobe/Lamp Enabled: No (USB2E7196)
Correct for Detector Non-linearity: No (USB2E7196)
Correct for Stray Light: No (USB2E7196)
Number of Pixels in Processed Spectrum: 2048
>>>>>Begin Processed Spectral Data<<<<<
339.09	0.00
339.48	215.52
339.86	217.00
340.24	218.12
340.63	219.80
341.01	223.64
341.39	222.12
341.78	223.76
342.16	225.14
342.54	225.56
342.93	213.83
343.31	224.64
343.69	225.17
344.07	225.61
344.46	226.06
344.84	226.42
345.22	226.58
345.60	226.85
345.99	227.04
346.37	227.15
346.75	227.23
347.13	227.33
347.52	227.38
347.90	227.49
348.28	227.52
348.66	227.57
349.05	227.54
349.43	227.63
349.81	227.67
350.19	227.71
350.57	227.78
350.96	227.85
351.34	227.94
351.72	228.02
352.10	228.12
352.48	228.17
352.87	228.23
353.25	228.30
353.63	228.35
354.01	228.40
354.39	228.48
354.77	228.57
355.15	228.67
355.54	228.73
355.92	228.72
356.30	228.77
356.68	228.95
357.06	229.02
357.44	229.03
357.82	229.08
358.20	229.27
358.58	229.29
358.97	229.36
359.35	229.45
359.73	229.54
360.11	229.58
360.49	229.64
360.87	229.68
361.25	229.76
361.63	229.85
362.01	229.90
362.39	229.91
362.77	229.95
363.15	229.95
363.53	229.98
363.91	230.01
364.29	230.02
364.67	229.86
365.05	229.87
365.43	229.92
365.81	229.95
366.19	229.88
366.57	229.93
366.95	229.89
367.33	229.81
367.71	229.79
368.09	229.78
368.47	229.75
368.85	229.71
369.23	229.70
369.61	229.59
369.99	229.62
370.37	229.60
370.75	229.67
371.13	229.61
371.51	229.52
371.89	229.46
372.27	229.42
372.65	229.38
373.03	229.29
373.41	229.18
373.78	229.09
374.16	228.94
374.54	228.81
374.92	228.73
375.30	228.67
375.68	228.54
376.06	228.47
376.44	228.36
376.82	228.28
377.19	228.18
377.57	228.11
377.95	227.93
378.33	227.80
378.71	227.56
379.09	227.49
379.47	227.45
379.84	227.34
380.22	227.23
380.60	227.11
380.98	227.06
381.36	226.99
381.73	226.90
382.11	226.87
382.49	226.83
382.87	226.73
383.25	226.64
383.62	226.79
384.00	226.70
384.38	226.65
384.76	226.63
385.13	226.63
385.51	226.59
385.89	226.53
386.27	226.52
386.64	226.49
387.02	226.43
387.40	226.35
387.78	226.35
388.15	226.33
388.53	226.28
388.91	226.25
389.29	226.21
389.66	226.23
390.04	226.18
390.42	226.18
390.79	226.18
391.17	226.18
391.55	225.96
391.92	225.95
392.30	225.98
392.68	225.96
393.05	225.95
393.43	225.96
393.81	226.00
394.18	226.00
394.56	226.08
394.94	226.13
395.31	226.20
395.69	226.31
396.06	226.38
396.44	226.46
396.82	226.51
397.19	226.67
397.57	226.73
397.95	226.84
398.32	226.88
398.70	227.01
399.07	227.15
399.45	227.25
399.82	227.40
400.20	227.51
400.58	227.62
400.95	227.70
401.33	227.88
401.70	228.14
402.08	228.34
402.45	228.48
402.83	228.68
403.20	228.84
403.58	229.00
403.95	229.25
404.33	229.50
404.71	229.73
405.08	230.03
405.46	230.29
405.83	230.55
406.21	230.85
406.58	231.13
406.96	231.42
407.33	231.76
407.70	232.13
408.08	232.63
408.45	233.07
408.83	233.54
409.20	233.93
409.58	234.28
409.95	234.77
410.33	235.29
410.70	235.77
411.08	236.37
411.45	236.99
411.82	237.56
412.20	238.25
412.57	239.07
412.95	239.69
413.32	240.51
413.69	241.34
414.07	242.21
414.44	243.17
414.82	244.16
415.19	245.32
415.56	246.47
415.94	247.63
416.31	248.99
416.68	250.32
417.06	251.89
417.43	253.33
417.81	255.01
418.18	256.71
418.55	258.55
418.93	260.47
419.30	262.47
419.67	264.63
420.04	266.83
420.42	269.11
420.79	271.81
421.16	274.48
421.54	277.20
421.91	280.00
422.28	282.94
422.66	286.08
423.03	289.11
423.40	292.26
423.77	295.64
424.15	299.08
424.52	302.66
424.89	306.56
425.26	310.42
425.64	314.00
426.01	318.06
426.38	322.23
426.75	326.53
427.13	330.91
427.50	335.49
427.87	340.26
428.24	345.09
428.61	349.66
428.99	354.71
429.36	360.23
429.73	365.55
430.10	370.79
430.47	376.23
430.85	381.76
431.22	387.77
431.59	393.97
431.96	400.03
432.33	406.70
432.70	413.09
433.08	420.63
433.45	427.79
433.82	434.85
434.19	442.77
434.56	450.55
434.93	458.08
435.30	465.55
435.68	474.01
436.05	482.32
436.42	490.62
436.79	498.18
437.16	506.40
437.53	515.19
437.90	524.03
438.27	532.61
438.64	541.88
439.01	550.32
439.38	558.04
439.75	565.52
440.13	574.05
440.50	582.08
440.87	588.48
441.24	595.53
441.61	603.11
441.98	608.63
442.35	615.23
442.72	622.03
443.09	628.49
443.46	632.61
443.83	635.62
444.20	638.18
444.57	641.90
444.94	644.06
445.31	646.28
445.68	648.24
446.05	649.60
446.42	649.27
446.79	648.79
447.16	648.28
447.53	647.79
447.90	645.09
448.27	642.54
448.64	638.81
449.01	636.16
449.37	630.88
449.74	626.06
450.11	619.91
450.48	613.02
450.85	606.09
451.22	600.16
451.59	594.42
451.96	589.18
452.33	581.62
452.70	574.81
453.07	566.62
453.43	558.37
453.80	550.44
454.17	542.79
454.54	535.67
454.91	527.73
455.28	520.29
455.65	513.29
456.02	506.00
456.38	499.94
456.75	492.23
457.12	486.00
457.49	479.77
457.86	473.79
458.23	468.67
458.59	463.04
458.96	457.25
459.33	452.13
459.70	446.91
460.07	442.94
460.43	438.29
460.80	433.93
461.17	430.15
461.54	426.10
461.91	422.29
462.27	418.41
462.64	415.26
463.01	411.62
463.38	407.97
463.74	404.57
464.11	401.68
464.48	399.07
464.85	396.23
465.21	394.10
465.58	391.74
465.95	388.93
466.32	386.70
466.68	384.54
467.05	382.37
467.42	380.26
467.78	378.00
468.15	375.93
468.52	374.41
468.88	372.34
469.25	370.46
469.62	369.02
469.98	367.39
470.35	365.98
470.72	364.70
471.08	363.33
471.45	362.19
471.82	360.92
472.18	359.56
472.55	358.74
472.92	357.65
473.28	356.77
473.65	355.89
474.02	355.03
474.38	354.34
474.75	353.89
475.11	353.32
475.48	353.03
475.85	352.72
476.21	352.53
476.58	352.43
476.94	352.53
477.31	352.52
477.67	352.56
478.04	352.74
478.41	353.03
478.77	353.55
479.14	353.87
479.50	354.43
479.87	355.17
480.23	355.84
480.60	356.50
480.96	357.23
481.33	358.25
481.69	359.25
482.06	360.25
482.42	361.22
482.79	362.37
483.15	363.74
483.52	365.30
483.88	366.79
484.25	368.36
484.61	370.04
484.98	371.88
485.34	373.96
485.71	376.07
486.07	378.30
486.44	380.48
486.80	382.97
487.17	385.53
487.53	388.34
487.90	391.27
488.26	394.50
488.62	397.85
488.99	401.26
489.35	404.83
489.72	408.65
490.08	412.69
490.44	416.81
490.81	421.07
491.17	425.47
491.54	430.16
491.90	434.97
492.26	440.09
492.63	445.42
492.99	450.97
493.36	456.64
493.72	462.61
494.08	468.74
494.45	475.12
494.81	481.82
495.17	488.64
495.54	495.86
495.90	503.35
496.26	510.95
496.63	518.68
496.99	526.76
497.35	535.19
497.72	543.80
498.08	552.63
498.44	561.65
498.80	571.17
499.17	580.93
499.53	590.88
499.89	601.10
500.26	611.54
500.62	622.18
500.98	633.47
501.34	644.82
501.71	656.58
502.07	668.53
502.43	680.69
502.79	693.17
503.16	705.95
503.52	718.73
503.88	731.88
504.24	745.34
504.60	758.96
504.97	772.96
505.33	787.14
505.69	801.98
506.05	816.92
506.41	831.71
506.78	846.62
507.14	862.02
507.50	877.71
507.86	893.58
508.22	909.58
508.59	925.42
508.95	941.77
509.31	958.62
509.67	975.97
510.03	993.30
510.39	1010.44
510.75	1027.63
511.12	1044.98
511.48	1062.41
511.84	1079.86
512.20	1097.52
512.56	1115.68
512.92	1133.79
513.28	1151.62
513.64	1169.57
514.00	1187.84
514.37	1206.26
514.73	1224.49
515.09	1242.48
515.45	1260.47
515.81	1278.46
516.17	1296.21
516.53	1313.59
516.89	1330.63
517.25	1347.80
517.61	1364.80
517.97	1382.25
518.33	1399.10
518.69	1415.82
519.05	1432.79
519.41	1449.72
519.77	1466.72
520.13	1482.63
520.49	1498.66
520.85	1514.47
521.21	1530.12
521.57	1545.98
521.93	1560.90
522.29	1576.22
522.65	1591.11
523.01	1605.75
523.37	1619.88
523.73	1634.41
524.09	1648.82
524.45	1662.98
524.81	1676.52
525.17	1690.21
525.53	1702.98
525.89	1715.90
526.25	1728.78
526.61	1740.60
526.97	1752.33
527.33	1763.71
527.68	1775.43
528.04	1786.59
528.40	1797.53
528.76	1808.30
529.12	1818.47
529.48	1829.00
529.84	1837.80
530.20	1846.86
530.56	1855.42
530.91	1864.28
531.27	1872.93
531.63	1881.04
531.99	1888.80
532.35	1895.57
532.71	1902.31
533.07	1909.41
533.42	1915.34
533.78	1921.64
534.14	1927.96
534.50	1933.84
534.86	1940.03
535.21	1944.24
535.57	1948.51
535.93	1952.57
536.29	1955.96
536.65	1959.21
537.00	1961.72
537.36	1965.28
537.72	1967.60
538.08	1969.89
538.44	1971.54
538.79	1972.75
539.15	1972.93
539.51	1972.75
539.87	1972.66
540.22	1971.07
540.58	1969.90
540.94	1969.30
541.29	1967.52
541.65	1965.23
542.01	1962.73
542.37	1958.84
542.72	1956.51
543.08	1953.21
543.44	1949.86
543.79	1946.16
544.15	1941.85
544.51	1937.51
544.87	1932.51
545.22	1927.56
545.58	1922.11
545.94	1916.51
546.29	1910.59
546.65	1905.03
547.01	1899.22
547.36	1893.77
547.72	1888.57
548.07	1882.08
548.43	1875.20
548.79	1868.28
549.14	1861.82
549.50	1855.16
549.86	1848.68
550.21	1840.79
550.57	1833.56
550.92	1825.57
551.28	1817.37
551.64	1809.36
551.99	1801.64
552.35	1793.73
552.70	1785.75
553.06	1778.05
553.41	1770.21
553.77	1761.80
554.13	1753.35
554.48	1744.96
554.84	1735.97
555.19	1727.02
555.55	1718.35
555.90	1709.51
556.26	1701.09
556.61	1692.21
556.97	1682.81
557.32	1673.20
557.68	1663.92
558.03	1654.41
558.39	1645.27
558.74	1636.91
559.10	1627.87
559.45	1618.65
559.81	1609.45
560.16	1600.34
560.52	1591.25
560.87	1582.53
561.23	1573.57
561.58	1564.94
561.94	1555.91
562.29	1546.62
562.64	1537.82
563.00	1528.71
563.35	1520.08
563.71	1511.16
564.06	1502.18
564.42	1493.42
564.77	1484.76
565.12	1476.53
565.48	1468.32
565.83	1460.14
566.19	1451.80
566.54	1443.50
566.89	1434.71
567.25	1426.22
567.60	1418.06
567.96	1409.84
568.31	1400.98
568.66	1392.33
569.02	1383.92
569.37	1376.12
569.72	1368.73
570.08	1361.01
570.43	1353.28
570.78	1345.32
571.14	1336.98
571.49	1328.89
571.84	1321.09
572.20	1313.08
572.55	1305.14
572.90	1296.87
573.26	1288.51
573.61	1279.90
573.96	1271.55
574.31	1263.56
574.67	1255.68
575.02	1247.35
575.37	1239.21
575.72	1231.25
576.08	1223.29
576.43	1214.78
576.78	1206.08
577.13	1197.70
577.49	1189.48
577.84	1181.26
578.19	1172.83
578.54	1164.75
578.90	1156.43
579.25	1148.21
579.60	1140.46
579.95	1132.57
580.30	1125.41
580.66	1118.07
581.01	1110.59
581.36	1103.21
581.71	1096.15
582.06	1089.04
582.42	1082.00
582.77	1074.93
583.12	1068.26
583.47	1061.86
583.82	1055.67
584.17	1049.26
584.53	1042.77
584.88	1036.16
585.23	1029.77
585.58	1023.52
585.93	1017.22
586.28	1011.29
586.63	1005.27
586.98	999.05
587.34	992.99
587.69	986.25
588.04	979.85
588.39	973.90
588.74	967.86
589.09	962.03
589.44	955.75
589.79	950.10
590.14	944.51
590.49	938.69
590.84	932.85
591.19	927.34
591.54	921.68
591.89	915.97
592.25	910.65
592.60	905.00
592.95	899.72
593.30	894.44
593.65	889.17
594.00	883.87
594.35	879.11
594.70	873.68
595.05	868.83
595.40	863.96
595.75	858.85
596.10	854.04
596.45	849.00
596.80	844.30
597.15	839.35
597.50	834.37
597.85	829.73
598.19	825.19
598.54	820.51
598.89	816.21
599.24	812.06
599.59	807.73
599.94	803.85
600.29	799.74
600.64	795.58
600.99	791.11
601.34	786.96
601.69	782.37
602.04	778.57
602.39	774.70
602.74	770.94
603.08	767.24
603.43	763.38
603.78	759.48
604.13	755.65
604.48	751.80
604.83	747.99
605.18	743.93
605.53	739.98
605.87	735.97
606.22	732.04
606.57	727.98
606.92	723.80
607.27	719.59
607.62	715.57
607.96	711.72
608.31	708.31
608.66	704.80
609.01	701.27
609.36	697.77
609.70	693.97
610.05	690.02
610.40	686.28
610.75	682.63
611.10	679.33
611.44	675.75
611.79	672.37
612.14	668.81
612.49	665.21
612.83	661.89
613.18	658.63
613.53	655.32
613.88	651.93
614.22	648.81
614.57	645.51
614.92	642.24
615.27	639.11
615.61	635.86
615.96	632.51
616.31	629.28
616.65	625.95
617.00	622.85
617.35	619.80
617.70	616.72
618.04	613.61
618.39	610.36
618.74	607.48
619.08	604.36
619.43	601.43
619.78	598.54
620.12	595.48
620.47	592.64
620.82	589.69
621.16	586.82
621.51	583.82
621.85	580.87
622.20	577.86
622.55	574.96
622.89	572.11
623.24	569.37
623.59	566.62
623.93	563.93
624.28	561.31
624.62	558.78
624.97	556.22
625.32	553.51
625.66	550.67
626.01	547.80
626.35	545.14
626.70	542.37
627.04	539.77
627.39	537.09
627.73	534.49
628.08	532.03
628.43	529.56
628.77	527.10
629.12	524.75
629.46	522.52
629.81	520.22
630.15	517.73
630.50	515.34
630.84	512.98
631.19	510.68
631.53	508.43
631.88	506.07
632.22	503.71
632.57	501.77
632.91	499.75
633.26	497.64
633.60	495.50
633.95	493.50
634.29	491.40
634.64	489.28
634.98	486.91
635.32	484.74
635.67	482.70
636.01	480.61
636.36	478.56
636.70	476.58
637.05	474.37
637.39	472.39
637.73	470.37
638.08	468.44
638.42	466.56
638.77	464.47
639.11	462.34
639.45	460.29
639.80	458.11
640.14	456.09
640.49	454.06
640.83	452.08
641.17	450.05
641.52	447.99
641.86	446.02
642.20	444.29
642.55	442.29
642.89	440.34
643.23	438.50
643.58	436.88
643.92	435.02
644.26	433.33
644.61	431.62
644.95	429.80
645.29	427.85
645.64	425.85
645.98	424.08
646.32	422.39
646.66	420.60
647.01	418.83
647.35	417.17
647.69	415.46
648.04	413.74
648.38	412.05
648.72	410.45
649.06	408.81
649.41	407.08
649.75	405.47
650.09	403.83
650.43	402.13
650.78	400.35
651.12	398.65
651.46	396.92
651.80	395.27
652.14	393.70
652.49	392.25
652.83	390.74
653.17	389.19
653.51	387.71
653.85	386.35
654.20	384.88
654.54	383.33
654.88	381.86
655.22	380.48
655.56	379.03
655.90	377.57
656.25	376.14
656.59	374.74
656.93	373.41
657.27	372.13
657.61	370.78
657.95	369.53
658.29	368.24
658.64	367.03
658.98	365.72
659.32	364.41
659.66	363.13
660.00	361.88
660.34	360.64
660.68	359.30
661.02	357.88
661.36	356.61
661.70	355.37
662.05	354.18
662.39	352.97
662.73	351.87
663.07	350.81
663.41	349.72
663.75	348.57
664.09	347.39
664.43	346.17
664.77	345.04
665.11	343.81
665.45	342.67
665.79	341.53
666.13	340.41
666.47	339.34
666.81	338.20
667.15	337.02
667.49	336.00
667.83	335.03
668.17	334.02
668.51	333.04
668.85	332.09
669.19	331.18
669.53	330.12
669.87	329.07
670.21	328.01
670.55	326.97
670.89	326.12
671.23	325.24
671.57	324.36
671.91	323.50
672.25	322.68
672.58	321.87
672.92	320.98
673.26	320.16
673.60	319.29
673.94	318.44
674.28	317.66
674.62	316.82
674.96	315.96
675.30	315.24
675.64	314.46
675.97	313.65
676.31	312.82
676.65	312.03
676.99	311.30
677.33	310.48
677.67	309.76
678.01	308.91
678.34	308.11
678.68	307.34
679.02	306.56
679.36	305.81
679.70	305.04
680.04	304.27
680.37	303.52
680.71	302.80
681.05	302.16
681.39	301.46
681.73	300.73
682.06	299.99
682.40	299.26
682.74	298.57
683.08	297.95
683.42	297.29
683.75	296.70
684.09	295.95
684.43	295.31
684.77	294.62
685.10	294.03
685.44	293.41
685.78	292.80
686.12	292.20
686.45	291.58
686.79	290.92
687.13	290.33
687.46	289.69
687.80	289.09
688.14	288.43
688.48	287.89
688.81	287.31
689.15	286.82
689.49	286.19
689.82	285.62
690.16	284.95
690.50	284.30
690.83	283.67
691.17	283.09
691.51	282.56
691.84	282.02
692.18	281.41
692.52	280.79
692.85	280.21
693.19	279.70
693.52	279.16
693.86	278.62
694.20	278.09
694.53	277.60
694.87	277.09
695.21	276.57
695.54	276.01
695.88	275.45
696.21	274.86
696.55	274.40
696.88	273.89
697.22	273.38
697.56	272.93
697.89	272.42
698.23	271.96
698.56	271.42
698.90	270.96
699.23	270.46
699.57	270.00
699.90	269.52
700.24	268.97
700.58	268.49
700.91	268.10
701.25	267.81
701.58	267.46
701.92	267.04
702.25	266.61
702.59	266.14
702.92	265.71
703.26	265.28
703.59	264.82
703.93	264.52
704.26	264.09
704.60	263.67
704.93	263.25
705.26	262.83
705.60	262.47
705.93	262.05
706.27	261.70
706.60	261.38
706.94	261.07
707.27	260.67
707.61	260.31
707.94	259.94
708.27	259.42
708.61	258.96
708.94	258.54
709.28	258.19
709.61	257.86
709.94	257.55
710.28	257.26
710.61	256.97
710.95	256.52
711.28	256.33
711.61	256.01
711.95	255.77
712.28	255.46
712.61	255.14
712.95	254.95
713.28	254.76
713.61	254.43
713.95	254.09
714.28	253.89
714.61	253.61
714.95	253.35
715.28	253.08
715.61	252.84
715.95	252.62
716.28	252.37
716.61	252.16
716.95	251.94
717.28	251.71
717.61	251.46
717.94	251.23
718.28	250.90
718.61	250.68
718.94	250.41
719.27	250.16
719.61	249.99
719.94	249.72
720.27	249.40
720.60	249.21
720.94	249.04
721.27	248.83
721.60	248.66
721.93	248.45
722.27	248.32
722.60	248.16
722.93	247.94
723.26	247.77
723.59	247.53
723.93	247.34
724.26	247.15
724.59	246.98
724.92	246.81
725.25	246.69
725.59	246.51
725.92	246.37
726.25	246.26
726.58	246.07
726.91	245.89
727.24	245.77
727.57	245.58
727.91	245.36
728.24	245.22
728.57	245.02
728.90	244.85
729.23	244.62
729.56	244.53
729.89	244.38
730.22	244.21
730.55	244.08
730.89	243.91
731.22	243.74
731.55	243.56
731.88	243.40
732.21	243.19
732.54	243.03
732.87	242.88
733.20	242.71
733.53	242.56
733.86	242.44
734.19	242.25
734.52	242.15
734.85	242.13
735.18	241.95
735.51	241.86
735.84	241.74
736.17	241.65
736.50	241.41
736.83	241.47
737.16	241.33
737.49	241.20
737.82	241.02
738.15	240.91
738.48	240.77
738.81	240.64
739.14	240.48
739.47	240.32
739.80	240.15
740.13	240.03
740.46	239.87
740.79	239.68
741.12	239.53
741.45	239.34
741.78	239.10
742.11	239.00
742.44	238.82
742.77	238.70
743.10	238.52
743.43	238.38
743.75	238.07
744.08	238.21
744.41	238.07
744.74	237.95
745.07	237.76
745.40	237.67
745.73	237.60
746.06	237.51
746.39	237.42
746.71	237.31
747.04	237.18
747.37	237.08
747.70	237.01
748.03	236.91
748.36	236.85
748.68	236.74
749.01	236.58
749.34	236.49
749.67	236.38
750.00	236.30
750.33	236.34
750.65	236.24
750.98	235.91
751.31	235.82
751.64	235.75
751.97	235.80
752.29	235.69
752.62	235.53
752.95	235.44
753.28	235.30
753.60	235.21
753.93	235.16
754.26	235.09
754.59	234.97
754.91	234.88
755.24	234.78
755.57	234.81
755.90	234.74
756.22	234.64
756.55	234.56
756.88	234.47
757.20	234.29
757.53	234.17
757.86	234.08
758.19	234.02
758.51	233.95
758.84	233.77
759.17	233.71
759.49	233.69
759.82	233.72
760.15	233.70
760.47	233.66
760.80	233.56
761.13	233.53
761.45	233.50
761.78	233.48
762.11	233.44
762.43	233.29
762.76	233.28
763.08	233.27
763.41	233.24
763.74	233.24
764.06	233.18
764.39	233.20
764.71	233.17
765.04	233.13
765.37	233.08
765.69	233.03
766.02	232.98
766.34	232.94
766.67	232.84
767.00	232.85
767.32	232.90
767.65	232.98
767.97	232.90
768.30	232.88
768.62	232.84
768.95	232.76
769.27	232.72
769.60	232.69
769.92	232.62
770.25	232.56
770.57	232.48
770.90	232.45
771.22	232.35
771.55	232.33
771.87	232.28
772.20	232.24
772.52	232.38
772.85	232.53
773.17	232.48
773.50	232.42
773.82	232.33
774.15	232.17
774.47	232.02
774.80	231.95
775.12	231.89
775.45	231.84
775.77	231.79
776.09	231.77
776.42	231.73
776.74	231.72
777.07	231.66
777.39	231.61
777.72	231.52
778.04	231.50
778.36	231.42
778.69	231.39
779.01	231.34
779.33	231.13
779.66	230.89
779.98	230.83
780.31	230.80
780.63	230.82
780.95	230.84
781.28	230.77
781.60	230.70
781.92	230.64
782.25	230.59
782.57	230.54
782.89	230.48
783.22	230.39
783.54	230.33
783.86	230.31
784.19	230.25
784.51	230.27
784.83	230.21
785.16	230.16
785.48	230.11
785.80	230.06
786.12	230.02
786.45	230.00
786.77	229.98
787.09	229.92
787.42	229.84
787.74	229.79
788.06	229.78
788.38	229.76
788.71	229.73
789.03	229.71
789.35	229.72
789.67	229.65
789.99	229.67
790.32	229.62
790.64	229.60
790.96	229.76
791.28	229.68
791.61	229.63
791.93	229.63
792.25	229.60
792.57	229.71
792.89	229.69
793.21	229.69
793.54	229.65
793.86	229.63
794.18	229.63
794.50	229.60
794.82	229.56
795.14	229.58
795.47	229.60
795.79	229.57
796.11	229.51
796.43	229.51
796.75	229.49
797.07	229.48
797.39	229.50
797.71	229.36
798.04	229.37
798.36	229.42
798.68	229.41
799.00	229.40
799.32	229.32
799.64	229.33
799.96	229.30
800.28	229.35
800.60	229.32
800.92	229.33
801.24	229.31
801.56	229.37
801.89	229.35
802.21	229.35
802.53	229.33
802.85	229.37
803.17	229.44
803.49	229.41
803.81	229.40
804.13	229.35
804.45	229.30
804.77	229.34
805.09	229.31
805.41	229.29
805.73	229.26
806.05	229.22
806.37	229.19
806.69	229.18
807.01	229.17
807.33	229.20
807.65	229.14
807.97	229.23
808.28	229.18
808.60	229.18
808.92	229.17
809.24	229.29
809.56	229.24
809.88	229.18
810.20	229.19
810.52	229.21
810.84	229.18
811.16	229.16
811.48	229.10
811.80	229.16
812.12	229.16
812.43	229.18
812.75	229.19
813.07	229.16
813.39	229.16
813.71	229.10
814.03	229.07
814.35	229.06
814.67	228.97
814.98	228.92
815.30	228.90
815.62	228.85
815.94	228.68
816.26	228.71
816.58	228.66
816.89	228.66
817.21	228.61
817.53	228.62
817.85	228.60
818.17	228.60
818.48	228.49
818.80	228.52
819.12	228.47
819.44	228.42
