SpectraSuite Data File
++++++++++++++++++++++++++++++++++++
Date: Sun Sep 13 18:35:59 EDT 2015
User: lab3
Dark Spectrum Present: No
Reference Spectrum Present: No
Number of Sampled Component Spectra: 1
Spectrometers: USB2E7196
Integration Time (usec): 65000 (USB2E7196)
Spectra Averaged: 200 (USB2E7196)
Boxcar Smoothing: 10 (USB2E7196)
Correct for Electrical Dark: No (USB2E7196)
Strobe/Lamp Enabled: No (USB2E7196)
Correct for Detector Non-linearity: No (USB2E7196)
Correct for Stray Light: No (USB2E7196)
Number of Pixels in Processed Spectrum: 2048
>>>>>Begin Processed Spectral Data<<<<<
339.09	0.00
339.48	215.90
339.86	216.88
340.24	218.52
340.63	220.36
341.01	223.89
341.39	222.70
341.78	224.12
342.16	225.14
342.54	225.92
342.93	214.24
343.31	225.06
343.69	225.58
344.07	226.06
344.46	226.51
344.84	226.87
345.22	227.04
345.60	227.30
345.99	227.48
346.37	227.61
346.75	227.71
347.13	227.78
347.52	227.87
347.90	227.97
348.28	228.01
348.66	228.07
349.05	228.05
349.43	228.10
349.81	228.14
350.19	228.16
350.57	228.20
350.96	228.29
351.34	228.39
351.72	228.47
352.10	228.56
352.48	228.59
352.87	228.67
353.25	228.74
353.63	228.79
354.01	228.84
354.39	228.94
354.77	229.00
355.15	229.10
355.54	229.10
355.92	229.12
356.30	229.17
356.68	229.35
357.06	229.42
357.44	229.45
357.82	229.50
358.20	229.73
358.58	229.80
358.97	229.84
359.35	229.91
359.73	230.02
360.11	230.06
360.49	230.12
360.87	230.16
361.25	230.23
361.63	230.34
362.01	230.38
362.39	230.37
362.77	230.42
363.15	230.42
363.53	230.46
363.91	230.48
364.29	230.52
364.67	230.35
365.05	230.36
365.43	230.39
365.81	230.42
366.19	230.35
366.57	230.40
366.95	230.37
367.33	230.31
367.71	230.25
368.09	230.27
368.47	230.23
368.85	230.17
369.23	230.15
369.61	230.03
369.99	230.04
370.37	230.02
370.75	230.11
371.13	230.04
371.51	229.97
371.89	229.90
372.27	229.82
372.65	229.76
373.03	229.67
373.41	229.55
373.78	229.46
374.16	229.28
374.54	229.15
374.92	229.07
375.30	228.99
375.68	228.90
376.06	228.82
376.44	228.73
376.82	228.66
377.19	228.58
377.57	228.50
377.95	228.36
378.33	228.25
378.71	228.00
379.09	227.92
379.47	227.84
379.84	227.75
380.22	227.64
380.60	227.52
380.98	227.43
381.36	227.37
381.73	227.26
382.11	227.22
382.49	227.15
382.87	227.05
383.25	226.98
383.62	227.10
384.00	226.99
384.38	226.94
384.76	226.91
385.13	226.90
385.51	226.85
385.89	226.78
386.27	226.74
386.64	226.72
387.02	226.66
387.40	226.61
387.78	226.58
388.15	226.57
388.53	226.56
388.91	226.54
389.29	226.50
389.66	226.52
390.04	226.50
390.42	226.52
390.79	226.52
391.17	226.53
391.55	226.33
391.92	226.36
392.30	226.39
392.68	226.37
393.05	226.38
393.43	226.43
393.81	226.47
394.18	226.48
394.56	226.51
394.94	226.61
395.31	226.68
395.69	226.80
396.06	226.90
396.44	227.01
396.82	227.10
397.19	227.28
397.57	227.37
397.95	227.49
398.32	227.57
398.70	227.71
399.07	227.86
399.45	228.01
399.82	228.15
400.20	228.28
400.58	228.44
400.95	228.53
401.33	228.72
401.70	229.04
402.08	229.25
402.45	229.49
402.83	229.74
403.20	229.96
403.58	230.18
403.95	230.42
404.33	230.69
404.71	230.98
405.08	231.37
405.46	231.69
405.83	232.02
406.21	232.36
406.58	232.76
406.96	233.15
407.33	233.57
407.70	234.05
408.08	234.69
408.45	235.26
408.83	235.87
409.20	236.42
409.58	236.92
409.95	237.62
410.33	238.33
410.70	239.01
411.08	239.81
411.45	240.67
411.82	241.54
412.20	242.51
412.57	243.62
412.95	244.54
413.32	245.74
413.69	246.94
414.07	248.24
414.44	249.63
414.82	251.06
415.19	252.74
415.56	254.44
415.94	256.20
416.31	258.18
416.68	260.17
417.06	262.51
417.43	264.68
417.81	267.18
418.18	269.71
418.55	272.48
418.93	275.41
419.30	278.45
419.67	281.70
420.04	285.05
420.42	288.60
420.79	292.62
421.16	296.68
421.54	300.82
421.91	305.18
422.28	309.70
422.66	314.60
423.03	319.24
423.40	324.15
423.77	329.45
424.15	334.86
424.52	340.48
424.89	346.60
425.26	352.65
425.64	358.31
426.01	364.75
426.38	371.30
426.75	378.04
427.13	384.95
427.50	392.28
427.87	399.90
428.24	407.61
428.61	415.02
428.99	423.00
429.36	431.85
429.73	440.28
430.10	448.71
430.47	457.37
430.85	466.33
431.22	475.96
431.59	485.84
431.96	495.56
432.33	506.32
432.70	516.65
433.08	528.90
433.45	540.53
433.82	552.00
434.19	564.91
434.56	577.63
434.93	589.96
435.30	602.15
435.68	616.00
436.05	629.61
436.42	643.31
436.79	655.88
437.16	669.46
437.53	684.09
437.90	698.74
438.27	713.10
438.64	728.61
439.01	742.67
439.38	755.70
439.75	768.25
440.13	782.51
440.50	795.95
440.87	806.75
441.24	818.51
441.61	831.33
441.98	840.81
442.35	852.03
442.72	863.60
443.09	874.59
443.46	881.74
443.83	887.10
444.20	891.65
444.57	898.19
444.94	902.17
445.31	906.13
445.68	909.56
446.05	912.13
446.42	911.94
446.79	911.51
447.16	911.05
447.53	910.65
447.90	906.64
448.27	902.87
448.64	897.06
449.01	893.07
449.37	884.63
449.74	876.97
450.11	866.93
450.48	855.80
450.85	844.63
451.22	835.12
451.59	825.83
451.96	817.36
452.33	804.99
452.70	793.96
453.07	780.56
453.43	767.13
453.80	754.14
454.17	741.59
454.54	729.95
454.91	716.94
455.28	704.63
455.65	693.02
456.02	680.74
456.38	670.77
456.75	658.01
457.12	647.71
457.49	637.35
457.86	627.59
458.23	618.96
458.59	609.52
458.96	599.82
459.33	591.25
459.70	582.56
460.07	575.91
460.43	568.06
460.80	560.77
461.17	554.40
461.54	547.45
461.91	540.97
462.27	534.35
462.64	528.90
463.01	522.73
463.38	516.50
463.74	510.92
464.11	505.86
464.48	501.31
464.85	496.33
465.21	492.46
465.58	488.20
465.95	483.36
466.32	479.45
466.68	475.60
467.05	471.72
467.42	467.87
467.78	463.79
468.15	460.05
468.52	457.14
468.88	453.47
469.25	450.10
469.62	447.32
469.98	444.27
470.35	441.50
470.72	438.94
471.08	436.32
471.45	434.00
471.82	431.49
472.18	428.89
472.55	427.03
472.92	424.83
473.28	422.98
473.65	421.02
474.02	419.12
474.38	417.36
474.75	416.08
475.11	414.51
475.48	413.48
475.85	412.36
476.21	411.43
476.58	410.54
476.94	410.07
477.31	409.38
477.67	408.74
478.04	408.30
478.41	408.01
478.77	407.89
479.14	407.56
479.50	407.62
479.87	407.82
480.23	408.05
480.60	408.20
480.96	408.33
481.33	408.95
481.69	409.47
482.06	410.02
482.42	410.40
482.79	411.06
483.15	411.97
483.52	413.08
483.88	414.07
484.25	415.19
484.61	416.27
484.98	417.55
485.34	419.10
485.71	420.72
486.07	422.43
486.44	424.09
486.80	426.02
487.17	427.94
487.53	430.21
487.90	432.53
488.26	435.17
488.62	437.96
488.99	440.65
489.35	443.51
489.72	446.62
490.08	449.95
490.44	453.24
490.81	456.66
491.17	460.09
491.54	463.78
491.90	467.58
492.26	471.68
492.63	475.88
492.99	480.23
493.36	484.63
493.72	489.25
494.08	493.95
494.45	498.88
494.81	504.06
495.17	509.16
495.54	514.55
495.90	520.05
496.26	525.58
496.63	531.15
496.99	536.94
497.35	542.94
497.72	549.06
498.08	555.18
498.44	561.35
498.80	567.88
499.17	574.49
499.53	581.12
499.89	587.84
500.26	594.56
500.62	601.31
500.98	608.44
501.34	615.48
501.71	622.71
502.07	629.88
502.43	637.04
502.79	644.37
503.16	651.70
503.52	658.95
503.88	666.21
504.24	673.63
504.60	681.02
504.97	688.51
505.33	695.90
505.69	703.69
506.05	711.23
506.41	718.56
506.78	725.76
507.14	733.08
507.50	740.40
507.86	747.80
508.22	755.04
508.59	762.01
508.95	769.16
509.31	776.37
509.67	783.80
510.03	791.04
510.39	797.95
510.75	804.72
511.12	811.33
511.48	817.84
511.84	824.24
512.20	830.53
512.56	836.92
512.92	843.12
513.28	848.94
513.64	854.73
514.00	860.52
514.37	866.23
514.73	871.72
515.09	876.83
515.45	881.83
515.81	886.66
516.17	891.23
516.53	895.40
516.89	899.34
517.25	903.01
517.61	906.57
517.97	910.30
518.33	913.66
518.69	916.88
519.05	920.17
519.41	923.21
519.77	926.36
520.13	928.77
520.49	931.13
520.85	933.38
521.21	935.59
521.57	937.73
521.93	939.34
522.29	941.20
522.65	942.80
523.01	944.17
523.37	945.31
523.73	946.68
524.09	947.83
524.45	948.90
524.81	949.72
525.17	950.54
525.53	950.96
525.89	951.38
526.25	951.84
526.61	951.72
526.97	951.73
527.33	951.58
527.68	951.73
528.04	951.54
528.40	951.19
528.76	950.86
529.12	950.36
529.48	950.12
529.84	949.05
530.20	948.33
530.56	947.43
530.91	946.76
531.27	945.95
531.63	945.15
531.99	944.13
532.35	942.94
532.71	941.84
533.07	940.95
533.42	939.95
533.78	938.92
534.14	938.13
534.50	937.12
534.86	936.42
535.21	934.87
535.57	933.69
535.93	932.46
536.29	931.05
536.65	929.60
537.00	928.03
537.36	927.09
537.72	925.82
538.08	924.64
538.44	923.28
538.79	921.96
539.15	920.42
539.51	918.90
539.87	917.39
540.22	915.40
540.58	913.81
540.94	912.38
541.29	910.83
541.65	909.31
542.01	908.02
542.37	906.12
542.72	904.92
543.08	903.50
543.44	902.23
543.79	900.84
544.15	899.63
544.51	898.50
544.87	897.10
545.22	895.74
545.58	894.36
545.94	893.10
546.29	891.76
546.65	890.64
547.01	889.58
547.36	888.91
547.72	888.34
548.07	887.32
548.43	886.16
548.79	885.28
549.14	884.56
549.50	883.83
549.86	883.19
550.21	882.31
550.57	881.73
550.92	880.95
551.28	880.23
551.64	879.54
551.99	879.14
552.35	878.85
552.70	878.56
553.06	878.54
553.41	878.43
553.77	878.30
554.13	878.11
554.48	877.93
554.84	877.58
555.19	877.38
555.55	877.41
555.90	877.46
556.26	877.54
556.61	877.52
556.97	877.21
557.32	877.08
557.68	877.09
558.03	876.94
558.39	877.10
558.74	877.75
559.10	877.91
559.45	878.03
559.81	878.23
560.16	878.33
560.52	878.50
560.87	878.99
561.23	879.29
561.58	879.88
561.94	880.23
562.29	880.40
562.64	880.81
563.00	881.03
563.35	881.57
563.71	882.03
564.06	882.43
564.42	882.99
564.77	883.44
565.12	884.08
565.48	884.88
565.83	885.65
566.19	886.16
566.54	886.85
566.89	887.20
567.25	887.60
567.60	888.48
567.96	889.12
568.31	889.44
568.66	889.70
569.02	890.02
569.37	890.77
569.72	891.63
570.08	892.32
570.43	892.90
570.78	893.26
571.14	893.49
571.49	893.79
571.84	894.18
572.20	894.39
572.55	894.61
572.90	894.44
573.26	894.20
573.61	893.79
573.96	893.55
574.31	893.33
574.67	893.27
575.02	892.70
575.37	892.27
575.72	891.80
576.08	891.41
576.43	890.63
576.78	889.76
577.13	889.04
577.49	888.20
577.84	887.38
578.19	886.38
578.54	885.45
578.90	884.28
579.25	883.12
579.60	882.18
579.95	881.16
580.30	880.56
580.66	879.83
581.01	878.90
581.36	877.93
581.71	877.22
582.06	876.33
582.42	875.47
582.77	874.53
583.12	873.93
583.47	873.29
583.82	872.66
584.17	871.69
584.53	870.71
584.88	869.75
585.23	868.79
585.58	867.89
585.93	866.86
586.28	866.13
586.63	865.23
586.98	864.13
587.34	862.88
587.69	861.13
588.04	859.53
588.39	858.26
588.74	856.83
589.09	855.62
589.44	853.94
589.79	852.62
590.14	851.22
590.49	849.54
590.84	847.95
591.19	846.55
591.54	844.98
591.89	843.35
592.25	841.92
592.60	840.02
592.95	838.34
593.30	836.71
593.65	834.92
594.00	833.10
594.35	831.74
594.70	829.74
595.05	828.16
595.40	826.58
595.75	824.72
596.10	822.99
596.45	820.87
596.80	819.08
597.15	817.04
597.50	814.99
597.85	813.28
598.19	811.44
598.54	809.39
598.89	807.69
599.24	805.96
599.59	804.12
599.94	802.78
600.29	801.15
600.64	799.36
600.99	797.23
601.34	795.31
601.69	792.95
602.04	791.25
602.39	789.47
602.74	787.74
603.08	786.05
603.43	784.18
603.78	782.25
604.13	780.38
604.48	778.42
604.83	776.55
605.18	774.31
605.53	772.08
605.87	769.81
606.22	767.46
606.57	765.03
606.92	762.32
607.27	759.60
607.62	756.99
607.96	754.65
608.31	752.70
608.66	750.57
609.01	748.46
609.36	746.33
609.70	743.90
610.05	741.14
610.40	738.50
610.75	736.02
611.10	733.95
611.44	731.48
611.79	729.28
612.14	726.79
612.49	724.10
612.83	721.82
613.18	719.47
613.53	717.10
613.88	714.61
614.22	712.45
614.57	710.00
614.92	707.55
615.27	705.08
615.61	702.50
615.96	699.90
616.31	697.32
616.65	694.68
617.00	692.16
617.35	689.83
617.70	687.38
618.04	684.78
618.39	682.01
618.74	679.67
619.08	676.89
619.43	674.39
619.78	672.05
620.12	669.45
620.47	667.17
620.82	664.69
621.16	662.28
621.51	659.66
621.85	657.06
622.20	654.45
622.55	651.90
622.89	649.40
623.24	646.98
623.59	644.46
623.93	641.98
624.28	639.63
624.62	637.27
624.97	634.92
625.32	632.46
625.66	629.71
626.01	626.87
626.35	624.31
626.70	621.65
627.04	619.11
627.39	616.50
627.73	613.91
628.08	611.55
628.43	609.12
628.77	606.67
629.12	604.24
629.46	601.98
629.81	599.54
630.15	596.90
630.50	594.40
630.84	592.00
631.19	589.70
631.53	587.38
631.88	584.95
632.22	582.51
632.57	580.43
632.91	578.38
633.26	576.25
633.60	574.06
633.95	571.96
634.29	569.71
634.64	567.43
634.98	564.85
635.32	562.44
635.67	560.22
636.01	557.94
636.36	555.73
636.70	553.54
637.05	551.23
637.39	549.11
637.73	546.85
638.08	544.62
638.42	542.41
638.77	540.05
639.11	537.59
639.45	535.21
639.80	532.71
640.14	530.36
640.49	527.98
640.83	525.68
641.17	523.29
641.52	520.86
641.86	518.50
642.20	516.43
642.55	514.01
642.89	511.63
643.23	509.44
643.58	507.50
643.92	505.31
644.26	503.22
644.61	501.13
644.95	498.96
645.29	496.64
645.64	494.26
645.98	492.07
646.32	490.07
646.66	487.93
647.01	485.81
647.35	483.84
647.69	481.80
648.04	479.73
648.38	477.59
648.72	475.59
649.06	473.54
649.41	471.45
649.75	469.47
650.09	467.48
650.43	465.35
650.78	463.12
651.12	460.96
651.46	458.82
651.80	456.71
652.14	454.72
652.49	452.84
652.83	450.92
653.17	448.92
653.51	447.02
653.85	445.30
654.20	443.44
654.54	441.37
654.88	439.42
655.22	437.58
655.56	435.76
655.90	433.89
656.25	432.02
656.59	430.23
656.93	428.49
657.27	426.79
657.61	425.04
657.95	423.40
658.29	421.71
658.64	420.08
658.98	418.38
659.32	416.67
659.66	415.02
660.00	413.38
660.34	411.82
660.68	410.03
661.02	408.15
661.36	406.44
661.70	404.84
662.05	403.28
662.39	401.72
662.73	400.28
663.07	398.89
663.41	397.52
663.75	395.96
664.09	394.43
664.43	392.88
664.77	391.38
665.11	389.76
665.45	388.25
665.79	386.74
666.13	385.33
666.47	383.87
666.81	382.38
667.15	380.83
667.49	379.41
667.83	378.09
668.17	376.74
668.51	375.44
668.85	374.14
669.19	372.90
669.53	371.46
669.87	370.02
670.21	368.66
670.55	367.29
670.89	366.11
671.23	364.94
671.57	363.71
671.91	362.56
672.25	361.44
672.58	360.36
672.92	359.21
673.26	358.08
673.60	356.93
673.94	355.77
674.28	354.70
674.62	353.56
674.96	352.42
675.30	351.41
675.64	350.36
675.97	349.27
676.31	348.13
676.65	347.07
676.99	346.07
677.33	344.91
677.67	343.86
678.01	342.68
678.34	341.53
678.68	340.48
679.02	339.43
679.36	338.41
679.70	337.31
680.04	336.24
680.37	335.18
680.71	334.22
681.05	333.30
681.39	332.31
681.73	331.27
682.06	330.25
682.40	329.25
682.74	328.25
683.08	327.34
683.42	326.39
683.75	325.48
684.09	324.44
684.43	323.49
684.77	322.48
685.10	321.60
685.44	320.74
685.78	319.82
686.12	318.94
686.45	318.04
686.79	317.13
687.13	316.28
687.46	315.35
687.80	314.45
688.14	313.51
688.48	312.69
688.81	311.87
689.15	311.11
689.49	310.25
689.82	309.41
690.16	308.46
690.50	307.60
690.83	306.72
691.17	305.88
691.51	305.08
691.84	304.34
692.18	303.49
692.52	302.62
692.85	301.82
693.19	301.04
693.52	300.26
693.86	299.49
694.20	298.71
694.53	298.00
694.87	297.21
695.21	296.45
695.54	295.71
695.88	294.96
696.21	294.14
696.55	293.44
696.88	292.72
697.22	291.99
697.56	291.30
697.89	290.59
698.23	289.90
698.56	289.19
698.90	288.51
699.23	287.83
699.57	287.21
699.90	286.52
700.24	285.83
700.58	285.20
700.91	284.62
701.25	284.18
701.58	283.68
701.92	283.17
702.25	282.58
702.59	281.94
702.92	281.33
703.26	280.75
703.59	280.14
703.93	279.66
704.26	279.11
704.60	278.52
704.93	277.96
705.26	277.40
705.60	276.89
705.93	276.34
706.27	275.85
706.60	275.37
706.94	274.94
707.27	274.40
707.61	273.88
707.94	273.33
708.27	272.63
708.61	271.98
708.94	271.43
709.28	270.94
709.61	270.49
709.94	270.03
710.28	269.61
710.61	269.20
710.95	268.62
711.28	268.32
711.61	267.91
711.95	267.53
712.28	267.13
712.61	266.72
712.95	266.42
713.28	266.10
713.61	265.68
713.95	265.22
714.28	264.86
714.61	264.48
714.95	264.09
715.28	263.73
715.61	263.42
715.95	263.06
716.28	262.74
716.61	262.44
716.95	262.13
717.28	261.80
717.61	261.43
717.94	261.13
718.28	260.70
718.61	260.37
718.94	260.02
719.27	259.68
719.61	259.39
719.94	259.01
720.27	258.61
720.60	258.29
720.94	258.01
721.27	257.73
721.60	257.47
721.93	257.19
722.27	256.98
722.60	256.71
722.93	256.40
723.26	256.09
723.59	255.73
723.93	255.44
724.26	255.14
724.59	254.88
724.92	254.58
725.25	254.37
725.59	254.11
725.92	253.89
726.25	253.63
726.58	253.34
726.91	253.06
727.24	252.85
727.57	252.59
727.91	252.30
728.24	252.06
728.57	251.80
728.90	251.56
729.23	251.24
729.56	251.08
729.89	250.86
730.22	250.62
730.55	250.43
730.89	250.21
731.22	250.00
731.55	249.76
731.88	249.55
732.21	249.29
732.54	249.03
732.87	248.81
733.20	248.61
733.53	248.43
733.86	248.25
734.19	248.01
734.52	247.85
734.85	247.78
735.18	247.52
735.51	247.35
735.84	247.17
736.17	247.00
736.50	246.70
736.83	246.70
737.16	246.51
737.49	246.31
737.82	246.12
738.15	245.94
738.48	245.74
738.81	245.54
739.14	245.30
739.47	245.12
739.80	244.90
740.13	244.70
740.46	244.47
740.79	244.26
741.12	244.06
741.45	243.81
741.78	243.51
742.11	243.39
742.44	243.16
742.77	242.98
743.10	242.77
743.43	242.58
743.75	242.24
744.08	242.36
744.41	242.18
744.74	242.00
745.07	241.79
745.40	241.71
745.73	241.63
746.06	241.52
746.39	241.41
746.71	241.25
747.04	241.10
747.37	240.97
747.70	240.85
748.03	240.72
748.36	240.66
748.68	240.55
749.01	240.39
749.34	240.28
749.67	240.18
750.00	240.10
750.33	240.11
750.65	240.01
750.98	239.62
751.31	239.53
751.64	239.43
751.97	239.44
752.29	239.30
752.62	239.12
752.95	238.99
753.28	238.84
753.60	238.72
753.93	238.67
754.26	238.58
754.59	238.44
754.91	238.31
755.24	238.18
755.57	238.15
755.90	238.05
756.22	237.93
756.55	237.79
756.88	237.66
757.20	237.45
757.53	237.32
757.86	237.21
758.19	237.13
758.51	237.03
758.84	236.84
759.17	236.74
759.49	236.67
759.82	236.66
760.15	236.63
760.47	236.58
760.80	236.44
761.13	236.39
761.45	236.30
761.78	236.24
762.11	236.18
762.43	236.03
762.76	235.97
763.08	235.92
763.41	235.85
763.74	235.80
764.06	235.74
764.39	235.68
764.71	235.62
765.04	235.52
765.37	235.42
765.69	235.34
766.02	235.26
766.34	235.15
766.67	235.00
767.00	234.95
767.32	234.97
767.65	235.03
767.97	234.93
768.30	234.88
768.62	234.80
768.95	234.69
769.27	234.60
769.60	234.54
769.92	234.45
770.25	234.35
770.57	234.22
770.90	234.13
771.22	234.03
771.55	233.94
771.87	233.87
772.20	233.82
772.52	233.91
772.85	234.04
773.17	233.99
773.50	233.91
773.82	233.78
774.15	233.60
774.47	233.39
774.80	233.28
775.12	233.19
775.45	233.14
775.77	233.07
776.09	233.01
776.42	232.91
776.74	232.87
777.07	232.81
777.39	232.76
777.72	232.68
778.04	232.63
778.36	232.55
778.69	232.51
779.01	232.45
779.33	232.23
779.66	231.95
779.98	231.87
780.31	231.80
780.63	231.83
780.95	231.82
781.28	231.76
781.60	231.70
781.92	231.67
782.25	231.61
782.57	231.55
782.89	231.49
783.22	231.47
783.54	231.39
783.86	231.33
784.19	231.27
784.51	231.28
784.83	231.20
785.16	231.16
785.48	231.10
785.80	231.06
786.12	231.04
786.45	231.01
786.77	231.01
787.09	230.98
787.42	230.88
787.74	230.87
788.06	230.85
788.38	230.81
788.71	230.77
789.03	230.75
789.35	230.75
789.67	230.71
789.99	230.66
790.32	230.62
790.64	230.63
790.96	230.81
791.28	230.75
791.61	230.73
791.93	230.71
792.25	230.70
792.57	230.80
792.89	230.73
793.21	230.73
793.54	230.67
793.86	230.63
794.18	230.63
794.50	230.57
794.82	230.54
795.14	230.57
795.47	230.57
795.79	230.57
796.11	230.52
796.43	230.54
796.75	230.54
797.07	230.55
797.39	230.52
797.71	230.33
798.04	230.33
798.36	230.34
798.68	230.34
799.00	230.33
799.32	230.22
799.64	230.26
799.96	230.23
800.28	230.27
800.60	230.28
800.92	230.31
801.24	230.31
801.56	230.34
801.89	230.30
802.21	230.33
802.53	230.30
802.85	230.33
803.17	230.42
803.49	230.38
803.81	230.37
804.13	230.38
804.45	230.37
804.77	230.40
805.09	230.38
805.41	230.35
805.73	230.31
806.05	230.26
806.37	230.24
806.69	230.23
807.01	230.22
807.33	230.23
807.65	230.13
807.97	230.19
808.28	230.12
808.60	230.09
808.92	230.04
809.24	230.13
809.56	230.08
809.88	229.97
810.20	229.97
810.52	229.98
810.84	229.90
811.16	229.88
811.48	229.83
811.80	229.88
812.12	229.85
812.43	229.87
812.75	229.87
813.07	229.84
813.39	229.82
813.71	229.77
814.03	229.70
814.35	229.70
814.67	229.57
814.98	229.56
815.30	229.54
815.62	229.48
815.94	229.31
816.26	229.31
816.58	229.25
816.89	229.22
817.21	229.16
817.53	229.16
817.85	229.13
818.17	229.08
818.48	228.96
818.80	229.00
819.12	228.93
819.44	228.88
819.76	228.82
820.07	228.78
820.39	228.74
820.71	228.76
821.03	228.75
821.34	228.75
821.66	228.74
821.98	228.75
822.30	228.73
822.61	228.81
822.93	228.75
823.25	228.74
823.57	228.69
823.88	228.68
824.20	228.65
