SpectraSuite Data File
++++++++++++++++++++++++++++++++++++
Date: Sun Sep 13 18:33:45 EDT 2015
User: lab3
Dark Spectrum Present: No
Reference Spectrum Present: No
Number of Sampled Component Spectra: 1
Spectrometers: USB2E7196
Integration Time (usec): 65000 (USB2E7196)
Spectra Averaged: 200 (USB2E7196)
Boxcar Smoothing: 10 (USB2E7196)
Correct for Electrical Dark: No (USB2E7196)
Strobe/Lamp Enabled: No (USB2E7196)
Correct for Detector Non-linearity: No (USB2E7196)
Correct for Stray Light: No (USB2E7196)
Number of Pixels in Processed Spectrum: 2048
>>>>>Begin Processed Spectral Data<<<<<
339.09	0.00
339.48	216.26
339.86	217.74
340.24	219.16
340.63	220.16
341.01	224.18
341.39	222.96
341.78	224.55
342.16	225.76
342.54	226.19
342.93	214.56
343.31	225.39
343.69	225.92
344.07	226.37
344.46	226.80
344.84	227.20
345.22	227.40
345.60	227.67
345.99	227.88
346.37	228.02
346.75	228.10
347.13	228.16
347.52	228.27
347.90	228.38
348.28	228.41
348.66	228.47
349.05	228.46
349.43	228.50
349.81	228.57
350.19	228.60
350.57	228.65
350.96	228.73
351.34	228.82
351.72	228.90
352.10	229.01
352.48	229.09
352.87	229.15
353.25	229.20
353.63	229.24
354.01	229.29
354.39	229.36
354.77	229.48
355.15	229.60
355.54	229.64
355.92	229.66
356.30	229.74
356.68	229.92
357.06	230.01
357.44	230.07
357.82	230.14
358.20	230.38
358.58	230.45
358.97	230.49
359.35	230.60
359.73	230.73
360.11	230.78
360.49	230.84
360.87	230.88
361.25	230.94
361.63	231.05
362.01	231.09
362.39	231.11
362.77	231.14
363.15	231.15
363.53	231.15
363.91	231.19
364.29	231.20
364.67	231.06
365.05	231.08
365.43	231.10
365.81	231.11
366.19	231.03
366.57	231.08
366.95	231.07
367.33	230.99
367.71	230.93
368.09	230.93
368.47	230.91
368.85	230.86
369.23	230.86
369.61	230.74
369.99	230.76
370.37	230.74
370.75	230.80
371.13	230.73
371.51	230.67
371.89	230.61
372.27	230.55
372.65	230.49
373.03	230.38
373.41	230.29
373.78	230.21
374.16	230.01
374.54	229.89
374.92	229.80
375.30	229.74
375.68	229.60
376.06	229.52
376.44	229.41
376.82	229.35
377.19	229.30
377.57	229.22
377.95	229.08
378.33	228.98
378.71	228.75
379.09	228.69
379.47	228.63
379.84	228.53
380.22	228.43
380.60	228.31
380.98	228.25
381.36	228.18
381.73	228.06
382.11	228.05
382.49	227.98
382.87	227.89
383.25	227.82
383.62	227.97
384.00	227.86
384.38	227.80
384.76	227.78
385.13	227.76
385.51	227.70
385.89	227.62
386.27	227.57
386.64	227.58
387.02	227.51
387.40	227.45
387.78	227.45
388.15	227.41
388.53	227.40
388.91	227.37
389.29	227.33
389.66	227.37
390.04	227.32
390.42	227.34
390.79	227.36
391.17	227.35
391.55	227.17
391.92	227.22
392.30	227.26
392.68	227.22
393.05	227.23
393.43	227.28
393.81	227.34
394.18	227.37
394.56	227.42
394.94	227.53
395.31	227.58
395.69	227.69
396.06	227.82
396.44	227.92
396.82	228.01
397.19	228.21
397.57	228.29
397.95	228.44
398.32	228.53
398.70	228.65
399.07	228.83
399.45	228.99
399.82	229.11
400.20	229.27
400.58	229.48
400.95	229.59
401.33	229.78
401.70	230.11
402.08	230.34
402.45	230.56
402.83	230.82
403.20	231.08
403.58	231.33
403.95	231.61
404.33	231.91
404.71	232.21
405.08	232.63
405.46	232.99
405.83	233.37
406.21	233.77
406.58	234.24
406.96	234.71
407.33	235.23
407.70	235.80
408.08	236.51
408.45	237.16
408.83	237.85
409.20	238.53
409.58	239.17
409.95	239.98
410.33	240.82
410.70	241.66
411.08	242.58
411.45	243.56
411.82	244.60
412.20	245.76
412.57	247.11
412.95	248.23
413.32	249.62
413.69	251.09
414.07	252.64
414.44	254.36
414.82	256.07
415.19	258.05
415.56	260.11
415.94	262.26
416.31	264.65
416.68	267.02
417.06	269.77
417.43	272.31
417.81	275.30
418.18	278.34
418.55	281.69
418.93	285.19
419.30	288.83
419.67	292.72
420.04	296.70
420.42	300.91
420.79	305.68
421.16	310.58
421.54	315.51
421.91	320.70
422.28	326.10
422.66	331.92
423.03	337.48
423.40	343.38
423.77	349.73
424.15	356.21
424.52	363.00
424.89	370.38
425.26	377.68
425.64	384.54
426.01	392.25
426.38	400.12
426.75	408.25
427.13	416.63
427.50	425.42
427.87	434.59
428.24	443.88
428.61	452.89
428.99	462.52
429.36	473.20
429.73	483.41
430.10	493.58
430.47	504.02
430.85	514.86
431.22	526.43
431.59	538.30
431.96	550.03
432.33	563.09
432.70	575.57
433.08	590.44
433.45	604.50
433.82	618.41
434.19	633.98
434.56	649.29
434.93	664.23
435.30	679.13
435.68	695.99
436.05	712.56
436.42	729.16
436.79	744.45
437.16	760.97
437.53	778.68
437.90	796.48
438.27	813.89
438.64	832.74
439.01	849.90
439.38	865.83
439.75	881.15
440.13	898.47
440.50	914.81
440.87	927.96
441.24	942.30
441.61	957.88
441.98	969.50
442.35	983.30
442.72	997.38
443.09	1010.68
443.46	1019.43
443.83	1026.00
444.20	1031.62
444.57	1039.54
444.94	1044.43
445.31	1049.39
445.68	1053.61
446.05	1056.94
446.42	1056.67
446.79	1056.21
447.16	1055.71
447.53	1055.33
447.90	1050.52
448.27	1046.16
448.64	1039.08
449.01	1034.20
449.37	1024.01
449.74	1014.78
450.11	1002.54
450.48	989.08
450.85	975.63
451.22	964.09
451.59	952.82
451.96	942.58
452.33	927.62
452.70	914.27
453.07	898.01
453.43	881.78
453.80	865.90
454.17	850.74
454.54	836.60
454.91	820.81
455.28	805.83
455.65	791.74
456.02	776.59
456.38	764.52
456.75	749.08
457.12	736.66
457.49	724.07
457.86	712.29
458.23	701.77
458.59	690.27
458.96	678.53
459.33	668.11
459.70	657.48
460.07	649.43
460.43	639.89
460.80	630.95
461.17	623.14
461.54	614.72
461.91	606.82
462.27	598.73
462.64	592.09
463.01	584.55
463.38	576.92
463.74	570.22
464.11	564.06
464.48	558.49
464.85	552.39
465.21	547.62
465.58	542.47
465.95	536.65
466.32	531.89
466.68	527.18
467.05	522.48
467.42	517.81
467.78	512.82
468.15	508.19
468.52	504.72
468.88	500.26
469.25	496.17
469.62	492.75
469.98	489.13
470.35	485.75
470.72	482.62
471.08	479.50
471.45	476.66
471.82	473.58
472.18	470.39
472.55	468.13
472.92	465.45
473.28	463.13
473.65	460.66
474.02	458.27
474.38	456.11
474.75	454.53
475.11	452.62
475.48	451.31
475.85	449.94
476.21	448.79
476.58	447.68
476.94	447.05
477.31	446.18
477.67	445.34
478.04	444.77
478.41	444.37
478.77	444.13
479.14	443.69
479.50	443.70
479.87	443.96
480.23	444.13
480.60	444.25
480.96	444.37
481.33	445.04
481.69	445.65
482.06	446.25
482.42	446.61
482.79	447.35
483.15	448.36
483.52	449.66
483.88	450.76
484.25	452.00
484.61	453.32
484.98	454.84
485.34	456.62
485.71	458.46
486.07	460.50
486.44	462.44
486.80	464.74
487.17	467.01
487.53	469.60
487.90	472.34
488.26	475.42
488.62	478.70
488.99	481.89
489.35	485.24
489.72	488.90
490.08	492.82
490.44	496.74
490.81	500.82
491.17	504.90
491.54	509.30
491.90	513.81
492.26	518.63
492.63	523.59
492.99	528.82
493.36	534.05
493.72	539.57
494.08	545.17
494.45	551.05
494.81	557.20
495.17	563.37
495.54	569.86
495.90	576.62
496.26	583.30
496.63	590.09
496.99	597.07
497.35	604.36
497.72	611.81
498.08	619.22
498.44	626.69
498.80	634.71
499.17	642.74
499.53	650.88
499.89	659.16
500.26	667.50
500.62	675.91
500.98	684.88
501.34	693.67
501.71	702.79
502.07	711.75
502.43	720.86
502.79	730.14
503.16	739.58
503.52	748.76
503.88	758.13
504.24	767.69
504.60	777.30
504.97	787.06
505.33	796.79
505.69	807.05
506.05	817.24
506.41	826.99
506.78	836.78
507.14	846.81
507.50	856.88
507.86	866.99
508.22	877.03
508.59	886.73
508.95	896.81
509.31	906.99
509.67	917.62
510.03	928.04
510.39	938.19
510.75	948.04
511.12	957.96
511.48	967.89
511.84	977.69
512.20	987.45
512.56	997.44
512.92	1007.32
513.28	1016.74
513.64	1026.16
514.00	1035.90
514.37	1045.64
514.73	1055.02
515.09	1064.15
515.45	1073.22
515.81	1082.18
516.17	1090.88
516.53	1099.27
516.89	1107.41
517.25	1115.36
517.61	1123.33
517.97	1131.49
518.33	1139.30
518.69	1147.01
519.05	1154.89
519.41	1162.76
519.77	1170.73
520.13	1177.81
520.49	1184.91
520.85	1192.06
521.21	1199.21
521.57	1206.28
521.93	1212.83
522.29	1219.81
522.65	1226.54
523.01	1233.06
523.37	1239.36
523.73	1246.01
524.09	1252.41
524.45	1258.85
524.81	1265.09
525.17	1271.23
525.53	1276.97
525.89	1282.89
526.25	1288.92
526.61	1294.14
526.97	1299.45
527.33	1304.76
527.68	1310.49
528.04	1315.92
528.40	1321.15
528.76	1326.32
529.12	1331.38
529.48	1336.80
529.84	1341.05
530.20	1345.63
530.56	1350.06
530.91	1354.86
531.27	1359.68
531.63	1364.43
531.99	1368.91
532.35	1372.88
532.71	1377.15
533.07	1381.79
533.42	1385.98
533.78	1390.33
534.14	1394.97
534.50	1399.35
534.86	1404.17
535.21	1407.63
535.57	1411.41
535.93	1415.25
536.29	1418.79
536.65	1422.19
537.00	1425.21
537.36	1429.21
537.72	1432.65
538.08	1436.24
538.44	1439.31
538.79	1442.27
539.15	1444.73
539.51	1447.12
539.87	1449.49
540.22	1450.92
540.58	1452.90
540.94	1455.36
541.29	1457.28
541.65	1459.03
542.01	1460.88
542.37	1461.74
542.72	1463.82
543.08	1465.30
543.44	1466.81
543.79	1468.01
544.15	1469.39
544.51	1470.65
544.87	1471.46
545.22	1472.26
545.58	1472.88
545.94	1473.57
546.29	1474.09
546.65	1474.85
547.01	1475.58
547.36	1476.78
547.72	1478.00
548.07	1478.35
548.43	1478.31
548.79	1478.53
549.14	1479.12
549.50	1479.59
549.86	1480.03
550.21	1479.73
550.57	1479.87
550.92	1479.50
551.28	1479.21
551.64	1478.71
551.99	1478.75
552.35	1478.72
552.70	1478.73
553.06	1478.93
553.41	1478.89
553.77	1478.54
554.13	1478.03
554.48	1477.58
554.84	1476.71
555.19	1476.09
555.55	1475.51
555.90	1474.89
556.26	1474.50
556.61	1473.65
556.97	1472.20
557.32	1471.06
557.68	1469.95
558.03	1468.64
558.39	1467.62
558.74	1467.30
559.10	1466.39
559.45	1465.25
559.81	1464.21
560.16	1462.83
560.52	1461.46
560.87	1460.80
561.23	1459.79
561.58	1459.03
561.94	1457.76
562.29	1456.16
562.64	1454.92
563.00	1453.54
563.35	1452.42
563.71	1451.04
564.06	1449.58
564.42	1448.37
564.77	1446.90
565.12	1445.80
565.48	1444.83
565.83	1443.92
566.19	1442.58
566.54	1441.25
566.89	1439.38
567.25	1437.64
567.60	1436.49
567.96	1435.19
568.31	1433.07
568.66	1430.84
569.02	1429.01
569.37	1427.81
569.72	1426.87
570.08	1425.53
570.43	1423.99
570.78	1422.16
571.14	1419.92
571.49	1417.86
571.84	1416.01
572.20	1413.85
572.55	1411.63
572.90	1408.93
573.26	1406.01
573.61	1402.85
573.96	1399.89
574.31	1397.12
574.67	1394.46
575.02	1391.09
575.37	1387.81
575.72	1384.53
576.08	1381.38
576.43	1377.35
576.78	1373.19
577.13	1369.26
577.49	1365.35
577.84	1361.38
578.19	1357.01
578.54	1352.86
578.90	1348.26
579.25	1343.69
579.60	1339.61
579.95	1335.43
580.30	1331.92
580.66	1328.33
581.01	1324.37
581.36	1320.46
581.71	1316.64
582.06	1312.68
582.42	1308.79
582.77	1304.91
583.12	1301.50
583.47	1298.15
583.82	1294.92
584.17	1291.21
584.53	1287.35
584.88	1283.50
585.23	1279.75
585.58	1276.20
585.93	1272.52
586.28	1269.23
586.63	1265.73
586.98	1261.75
587.34	1257.81
587.69	1252.92
588.04	1248.20
588.39	1244.01
588.74	1239.61
589.09	1235.62
589.44	1231.03
589.79	1226.95
590.14	1222.70
590.49	1218.09
590.84	1213.54
591.19	1209.32
591.54	1204.98
591.89	1200.61
592.25	1196.40
592.60	1191.60
592.95	1187.13
593.30	1182.74
593.65	1178.21
594.00	1173.59
594.35	1169.58
594.70	1164.68
595.05	1160.50
595.40	1156.38
595.75	1151.87
596.10	1147.66
596.45	1142.87
596.80	1138.50
597.15	1133.88
597.50	1129.38
597.85	1125.27
598.19	1121.07
598.54	1116.62
598.89	1112.48
599.24	1108.41
599.59	1104.22
599.94	1100.75
600.29	1096.85
600.64	1092.79
600.99	1088.19
601.34	1083.95
601.69	1079.18
602.04	1075.32
602.39	1071.39
602.74	1067.56
603.08	1063.77
603.43	1059.62
603.78	1055.63
604.13	1051.61
604.48	1047.53
604.83	1043.29
605.18	1038.73
605.53	1034.20
605.87	1029.60
606.22	1025.04
606.57	1020.38
606.92	1015.34
607.27	1010.17
607.62	1005.36
607.96	1000.68
608.31	996.76
608.66	992.68
609.01	988.65
609.36	984.55
609.70	979.97
610.05	974.92
610.40	970.11
610.75	965.51
611.10	961.42
611.44	956.90
611.79	952.68
612.14	948.16
612.49	943.45
612.83	939.26
613.18	935.00
613.53	930.70
613.88	926.17
614.22	922.12
614.57	917.80
614.92	913.40
615.27	909.11
615.61	904.65
615.96	900.17
616.31	895.70
616.65	891.14
617.00	886.90
617.35	882.82
617.70	878.63
618.04	874.26
618.39	869.63
618.74	865.59
619.08	861.13
619.43	856.93
619.78	852.86
620.12	848.43
620.47	844.59
620.82	840.50
621.16	836.46
621.51	832.18
621.85	827.89
622.20	823.52
622.55	819.38
622.89	815.28
623.24	811.29
623.59	807.18
623.93	803.13
624.28	799.15
624.62	795.24
624.97	791.44
625.32	787.45
625.66	783.07
626.01	778.72
626.35	774.64
626.70	770.51
627.04	766.57
627.39	762.54
627.73	758.43
628.08	754.54
628.43	750.68
628.77	746.93
629.12	743.29
629.46	739.81
629.81	736.03
630.15	731.99
630.50	728.04
630.84	724.33
631.19	720.77
631.53	717.28
631.88	713.66
632.22	709.95
632.57	706.74
632.91	703.53
633.26	700.16
633.60	696.67
633.95	693.40
634.29	689.90
634.64	686.47
634.98	682.63
635.32	679.04
635.67	675.70
636.01	672.21
636.36	668.71
636.70	665.46
637.05	662.02
637.39	658.86
637.73	655.51
638.08	652.13
638.42	648.84
638.77	645.25
639.11	641.63
639.45	638.17
639.80	634.60
640.14	631.19
640.49	627.71
640.83	624.37
641.17	620.92
641.52	617.41
641.86	613.95
642.20	610.88
642.55	607.43
642.89	603.99
643.23	600.81
643.58	598.06
643.92	594.88
644.26	591.94
644.61	588.89
644.95	585.76
645.29	582.54
645.64	579.13
645.98	576.05
646.32	573.17
646.66	570.06
647.01	567.00
647.35	564.18
647.69	561.25
648.04	558.27
648.38	555.28
648.72	552.44
649.06	549.61
649.41	546.72
649.75	543.96
650.09	541.21
650.43	538.31
650.78	535.24
651.12	532.31
651.46	529.26
651.80	526.37
652.14	523.68
652.49	521.05
652.83	518.45
653.17	515.69
653.51	513.16
653.85	510.80
654.20	508.27
654.54	505.50
654.88	502.89
655.22	500.39
655.56	497.92
655.90	495.39
656.25	492.80
656.59	490.28
656.93	487.90
657.27	485.55
657.61	483.15
657.95	480.88
658.29	478.57
658.64	476.40
658.98	474.12
659.32	471.70
659.66	469.47
660.00	467.26
660.34	465.14
660.68	462.67
661.02	460.10
661.36	457.77
661.70	455.58
662.05	453.44
662.39	451.30
662.73	449.30
663.07	447.35
663.41	445.45
663.75	443.42
664.09	441.42
664.43	439.31
664.77	437.30
665.11	435.10
665.45	433.04
665.79	431.00
666.13	428.99
666.47	427.13
666.81	425.14
667.15	423.08
667.49	421.18
667.83	419.38
668.17	417.57
668.51	415.79
668.85	414.02
669.19	412.30
669.53	410.46
669.87	408.56
670.21	406.75
670.55	404.96
670.89	403.35
671.23	401.72
671.57	400.07
671.91	398.49
672.25	396.98
672.58	395.44
672.92	393.91
673.26	392.43
673.60	390.84
673.94	389.27
674.28	387.79
674.62	386.26
674.96	384.82
675.30	383.53
675.64	382.14
675.97	380.71
676.31	379.25
676.65	377.78
676.99	376.40
677.33	374.93
677.67	373.53
678.01	372.00
678.34	370.51
678.68	369.12
679.02	367.70
679.36	366.36
679.70	364.98
680.04	363.59
680.37	362.18
680.71	360.86
681.05	359.66
681.39	358.39
681.73	357.06
682.06	355.69
682.40	354.29
682.74	353.00
683.08	351.77
683.42	350.53
683.75	349.34
684.09	348.02
684.43	346.79
684.77	345.58
685.10	344.42
685.44	343.27
685.78	342.13
686.12	341.02
686.45	339.86
686.79	338.67
687.13	337.56
687.46	336.41
687.80	335.29
688.14	334.07
688.48	332.99
688.81	331.91
689.15	330.90
689.49	329.79
689.82	328.74
690.16	327.56
690.50	326.44
690.83	325.36
691.17	324.29
691.51	323.22
691.84	322.18
692.18	321.09
692.52	319.99
692.85	318.92
693.19	317.94
693.52	316.94
693.86	316.00
694.20	315.00
694.53	314.08
694.87	313.11
695.21	312.17
695.54	311.23
695.88	310.29
696.21	309.34
696.55	308.46
696.88	307.53
697.22	306.68
697.56	305.82
697.89	304.90
698.23	304.03
698.56	303.14
698.90	302.31
699.23	301.49
699.57	300.70
699.90	299.88
700.24	299.03
700.58	298.24
700.91	297.52
701.25	296.91
701.58	296.23
701.92	295.57
702.25	294.84
702.59	294.02
702.92	293.26
703.26	292.48
703.59	291.70
703.93	291.10
704.26	290.39
704.60	289.64
704.93	288.94
705.26	288.28
705.60	287.66
705.93	286.98
706.27	286.35
706.60	285.75
706.94	285.16
707.27	284.50
707.61	283.88
707.94	283.22
708.27	282.45
708.61	281.71
708.94	281.00
709.28	280.41
709.61	279.82
709.94	279.28
710.28	278.74
710.61	278.22
710.95	277.54
711.28	277.14
711.61	276.63
711.95	276.15
712.28	275.63
712.61	275.10
712.95	274.70
713.28	274.30
713.61	273.77
713.95	273.27
714.28	272.83
714.61	272.31
714.95	271.86
715.28	271.38
715.61	270.97
715.95	270.59
716.28	270.16
716.61	269.80
716.95	269.39
717.28	269.01
717.61	268.61
717.94	268.19
718.28	267.65
718.61	267.23
718.94	266.82
719.27	266.42
719.61	266.06
719.94	265.63
720.27	265.15
720.60	264.80
720.94	264.42
721.27	264.05
721.60	263.74
721.93	263.37
722.27	263.08
722.60	262.74
722.93	262.35
723.26	262.00
723.59	261.61
723.93	261.25
724.26	260.92
724.59	260.58
724.92	260.29
725.25	260.01
725.59	259.69
725.92	259.40
726.25	259.06
726.58	258.70
726.91	258.36
727.24	258.06
727.57	257.74
727.91	257.42
728.24	257.11
728.57	256.77
728.90	256.46
729.23	256.07
729.56	255.84
729.89	255.51
730.22	255.23
730.55	254.95
730.89	254.67
731.22	254.36
731.55	254.10
731.88	253.78
732.21	253.47
732.54	253.18
732.87	252.91
733.20	252.66
733.53	252.42
733.86	252.17
734.19	251.88
734.52	251.65
734.85	251.51
735.18	251.22
735.51	251.01
735.84	250.76
736.17	250.59
736.50	250.27
736.83	250.27
737.16	250.01
737.49	249.75
737.82	249.49
738.15	249.28
738.48	249.02
738.81	248.78
739.14	248.54
739.47	248.30
739.80	248.05
740.13	247.83
740.46	247.57
740.79	247.32
741.12	247.09
741.45	246.83
741.78	246.54
742.11	246.37
742.44	246.14
742.77	245.95
743.10	245.72
743.43	245.51
743.75	245.12
744.08	245.19
744.41	244.99
744.74	244.82
745.07	244.60
745.40	244.46
745.73	244.39
746.06	244.24
746.39	244.11
746.71	243.93
747.04	243.75
747.37	243.60
747.70	243.50
748.03	243.36
748.36	243.24
748.68	243.08
749.01	242.90
749.34	242.74
749.67	242.61
750.00	242.50
750.33	242.49
750.65	242.39
750.98	242.00
751.31	241.89
751.64	241.77
751.97	241.76
752.29	241.59
752.62	241.36
752.95	241.21
753.28	241.04
753.60	240.91
753.93	240.84
754.26	240.75
754.59	240.55
754.91	240.40
755.24	240.28
755.57	240.24
755.90	240.11
756.22	239.97
756.55	239.82
756.88	239.66
757.20	239.43
757.53	239.26
757.86	239.16
758.19	239.05
758.51	238.92
758.84	238.72
759.17	238.61
759.49	238.50
759.82	238.48
760.15	238.41
760.47	238.33
760.80	238.18
761.13	238.10
761.45	238.01
761.78	237.92
762.11	237.83
762.43	237.62
762.76	237.53
763.08	237.49
763.41	237.44
763.74	237.37
764.06	237.28
764.39	237.20
764.71	237.10
765.04	237.02
765.37	236.93
765.69	236.84
766.02	236.74
766.34	236.66
766.67	236.52
767.00	236.45
767.32	236.45
767.65	236.47
767.97	236.36
768.30	236.29
768.62	236.21
768.95	236.12
769.27	236.02
769.60	235.95
769.92	235.81
770.25	235.66
770.57	235.52
770.90	235.43
771.22	235.34
771.55	235.27
771.87	235.18
772.20	235.08
772.52	235.14
772.85	235.26
773.17	235.16
773.50	235.06
773.82	234.94
774.15	234.76
774.47	234.56
774.80	234.44
775.12	234.35
775.45	234.26
775.77	234.17
776.09	234.13
776.42	234.08
776.74	234.05
777.07	233.97
777.39	233.92
777.72	233.83
778.04	233.78
778.36	233.68
778.69	233.60
779.01	233.56
779.33	233.33
779.66	233.04
779.98	232.98
780.31	232.92
780.63	232.95
780.95	232.92
781.28	232.88
781.60	232.83
781.92	232.75
782.25	232.70
782.57	232.65
782.89	232.58
783.22	232.51
783.54	232.41
783.86	232.40
784.19	232.34
784.51	232.33
784.83	232.27
785.16	232.21
785.48	232.17
785.80	232.11
786.12	232.10
786.45	232.09
786.77	232.06
787.09	232.01
787.42	231.91
787.74	231.90
788.06	231.87
788.38	231.83
788.71	231.81
789.03	231.80
789.35	231.78
789.67	231.74
789.99	231.72
790.32	231.66
790.64	231.63
790.96	231.79
791.28	231.71
791.61	231.65
791.93	231.66
792.25	231.63
792.57	231.74
792.89	231.69
793.21	231.67
793.54	231.65
793.86	231.62
794.18	231.59
794.50	231.53
794.82	231.50
795.14	231.50
795.47	231.52
795.79	231.49
796.11	231.45
796.43	231.42
796.75	231.42
797.07	231.44
797.39	231.42
797.71	231.24
798.04	231.26
798.36	231.29
798.68	231.27
799.00	231.26
799.32	231.14
799.64	231.14
799.96	231.12
800.28	231.13
800.60	231.11
800.92	231.10
801.24	231.10
801.56	231.11
801.89	231.08
802.21	231.06
802.53	231.02
802.85	231.03
803.17	231.11
803.49	231.04
803.81	231.00
804.13	230.99
804.45	230.97
804.77	230.93
805.09	230.88
805.41	230.87
805.73	230.83
806.05	230.81
806.37	230.78
806.69	230.76
807.01	230.74
807.33	230.75
807.65	230.66
807.97	230.71
808.28	230.65
808.60	230.61
808.92	230.57
809.24	230.67
809.56	230.63
809.88	230.54
810.20	230.54
810.52	230.56
810.84	230.52
811.16	230.48
811.48	230.46
811.80	230.51
812.12	230.44
812.43	230.43
812.75	230.38
813.07	230.34
813.39	230.32
813.71	230.25
814.03	230.22
814.35	230.22
814.67	230.11
814.98	230.08
815.30	230.06
815.62	230.01
815.94	229.85
816.26	229.82
816.58	229.73
816.89	229.69
817.21	229.62
817.53	229.58
